LabVIEW Measurement	
Writer_Version	2
Reader_Version	2
Separator	Tab
Decimal_Separator	,
Multi_Headings	No
X_Columns	One
Time_Pref	Absolute
Operator	ruan.comelli
Date	2019/06/25
Time	14:39:55,7899180500581793707
***End_of_Header***	
	
Channels	1	
Samples	1	
Date	2019/06/25	
Time	14:39:55,7899180500581793707	
Y_Unit_Label	Deg C	
X_Dimension	Time	
X0	0,0000000000000000E+0	
Delta_X	0,000000	
***End_of_Header***		
X_Value	RTD Temperature	Comment
0,000000	85,366171
0,208000	85,367266
0,414000	85,366640
0,620000	85,365702
0,830000	85,366797
1,037000	85,366328
1,341000	85,366640
1,547000	85,366328
1,754000	85,366953
1,960000	85,367423
2,167000	85,366484
2,374000	85,367579
2,579000	85,367266
2,791000	85,367423
2,997000	85,368674
3,207000	85,366484
3,413000	85,367266
3,620000	85,366015
3,830000	85,366484
4,036000	85,366797
4,252000	85,365702
4,459000	85,366797
4,670000	85,366640
4,876000	85,367110
5,087000	85,366797
5,294000	85,366328
5,500000	85,365858
5,707000	85,366640
5,913000	85,367266
6,119000	85,366953
6,325000	85,366640
6,536000	85,366328
6,743000	85,366484
6,954000	85,366171
7,160000	85,366484
7,367000	85,366171
7,574000	85,366953
7,780000	85,366797
7,986000	85,367423
8,192000	85,367423
8,399000	85,367266
8,605000	85,367423
8,811000	85,368831
9,018000	85,368361
9,224000	85,367579
9,435000	85,369456
9,642000	85,368518
9,854000	85,369144
10,060000	85,370395
10,267000	85,368987
10,473000	85,369456
10,679000	85,369300
10,890000	85,369613
11,097000	85,369769
11,308000	85,370239
11,514000	85,370708
11,725000	85,370552
11,931000	85,370552
12,142000	85,371021
12,349000	85,370864
12,560000	85,372272
12,767000	85,371021
12,973000	85,371960
13,180000	85,372116
13,386000	85,371177
13,592000	85,372272
13,802000	85,371960
14,008000	85,371803
14,214000	85,372116
14,421000	85,372742
14,627000	85,372585
14,834000	85,373524
15,046000	85,373055
15,252000	85,373993
15,464000	85,372429
15,671000	85,373211
15,882000	85,374150
16,089000	85,373055
16,299000	85,374932
16,510000	85,374463
16,716000	85,375088
16,926000	85,375871
17,133000	85,375088
17,344000	85,376027
17,551000	85,374619
17,762000	85,376027
17,969000	85,376966
18,175000	85,376184
18,387000	85,376653
18,593000	85,376653
18,804000	85,376340
19,011000	85,377592
19,217000	85,377435
19,424000	85,377435
19,631000	85,377122
19,837000	85,378843
20,044000	85,378687
20,254000	85,378374
20,461000	85,378687
20,667000	85,378374
20,874000	85,379156
21,081000	85,378687
21,287000	85,379938
21,493000	85,379469
21,700000	85,380251
21,906000	85,379469
22,112000	85,381190
22,319000	85,380877
22,526000	85,381659
22,733000	85,381190
22,939000	85,382285
23,152000	85,380564
23,359000	85,381190
23,569000	85,382128
23,775000	85,381503
23,982000	85,382754
24,188000	85,382441
24,396000	85,382128
24,602000	85,383693
24,808000	85,382285
25,014000	85,382754
25,221000	85,382754
25,427000	85,383380
25,634000	85,383067
25,845000	85,382911
26,053000	85,383067
26,265000	85,383693
26,473000	85,383849
26,684000	85,384006
26,895000	85,384944
27,102000	85,384475
27,313000	85,384632
27,521000	85,385101
27,727000	85,384319
27,939000	85,384788
28,146000	85,384944
28,358000	85,385570
28,565000	85,385101
28,772000	85,386196
28,983000	85,385257
29,190000	85,385414
29,400000	85,384632
29,607000	85,385257
29,813000	85,386509
30,020000	85,386040
30,234000	85,384944
30,441000	85,385727
30,653000	85,385101
30,860000	85,385883
31,079000	85,384944
31,285000	85,386196
31,496000	85,385727
31,703000	85,384632
31,914000	85,384632
32,121000	85,385101
32,328000	85,385101
32,537000	85,385257
32,744000	85,384006
32,959000	85,383693
33,166000	85,384944
33,378000	85,384162
33,585000	85,384319
33,796000	85,384162
34,003000	85,383849
34,213000	85,383380
34,420000	85,383536
34,626000	85,383693
34,839000	85,383067
35,047000	85,381816
35,259000	85,383380
35,466000	85,383224
35,678000	85,382285
35,884000	85,383380
36,094000	85,381972
36,300000	85,381346
36,511000	85,382285
36,718000	85,382128
36,925000	85,381346
37,131000	85,381346
37,338000	85,381816
37,545000	85,381033
37,752000	85,380408
37,959000	85,380408
38,166000	85,380251
38,374000	85,380564
38,581000	85,381033
38,788000	85,380251
38,994000	85,379938
39,204000	85,380251
39,411000	85,380095
39,623000	85,379938
39,830000	85,379625
40,037000	85,378530
40,249000	85,378843
40,455000	85,379000
40,667000	85,378843
40,877000	85,378217
41,088000	85,379000
41,295000	85,377904
41,502000	85,377748
41,708000	85,378374
41,915000	85,377279
42,121000	85,378061
42,333000	85,378530
42,540000	85,377592
42,752000	85,376653
42,958000	85,377279
43,170000	85,375871
43,377000	85,376966
43,583000	85,376809
43,791000	85,376340
43,997000	85,375714
44,204000	85,376496
44,411000	85,375401
44,618000	85,375871
44,824000	85,375558
45,037000	85,375088
45,245000	85,374619
45,452000	85,375714
45,659000	85,373993
45,865000	85,373837
46,072000	85,374463
46,293000	85,373368
46,499000	85,372898
46,711000	85,373680
46,917000	85,373680
47,124000	85,372272
47,334000	85,371960
47,547000	85,371803
47,754000	85,371803
47,960000	85,371803
48,167000	85,371803
48,375000	85,372429
48,587000	85,369769
48,794000	85,370395
49,022000	85,370708
49,230000	85,370082
49,437000	85,369926
49,662000	85,369769
49,870000	85,369144
50,076000	85,368831
50,290000	85,369926
50,497000	85,369769
50,711000	85,369300
50,917000	85,368674
51,125000	85,368674
51,355000	85,367892
51,562000	85,366797
51,781000	85,367110
52,009000	85,368205
52,221000	85,366171
52,428000	85,366953
52,642000	85,367579
52,855000	85,367110
53,090000	85,366640
53,298000	85,366484
53,504000	85,365076
53,768000	85,365232
54,000000	85,366171
54,220000	85,365858
54,427000	85,365858
54,640000	85,365076
54,847000	85,364137
55,055000	85,364294
55,266000	85,364294
55,476000	85,364137
55,683000	85,363981
55,890000	85,363668
56,104000	85,363199
56,311000	85,362416
56,521000	85,362416
56,759000	85,362104
57,080000	85,361478
57,294000	85,361634
57,502000	85,361478
57,727000	85,361947
57,965000	85,361009
58,173000	85,360383
58,380000	85,360226
58,670000	85,359757
58,915000	85,358505
59,128000	85,358662
59,338000	85,358036
59,586000	85,358818
59,793000	85,357254
60,000000	85,357880
60,207000	85,357254
60,416000	85,356941
60,623000	85,357097
60,830000	85,358505
61,042000	85,357097
61,254000	85,357723
61,471000	85,356002
61,683000	85,356941
61,897000	85,356785
62,104000	85,356628
62,311000	85,355377
62,527000	85,356315
62,734000	85,356785
62,943000	85,354751
63,187000	85,355220
63,394000	85,356002
63,606000	85,355220
63,812000	85,356002
64,020000	85,353656
64,227000	85,353656
64,439000	85,354281
64,647000	85,353030
64,860000	85,353499
65,067000	85,353343
65,274000	85,352248
65,482000	85,351465
65,690000	85,352873
65,898000	85,351778
66,104000	85,351778
66,311000	85,351309
66,519000	85,351465
66,726000	85,350058
66,939000	85,351465
67,153000	85,350370
67,360000	85,350683
67,577000	85,349588
67,785000	85,349275
67,998000	85,348337
68,205000	85,348493
68,416000	85,348806
68,623000	85,348650
68,837000	85,348180
69,045000	85,347242
69,254000	85,347867
69,466000	85,348337
69,673000	85,346929
69,882000	85,347242
70,089000	85,345521
70,305000	85,346616
70,514000	85,346772
70,723000	85,346616
70,937000	85,345208
71,260000	85,345051
71,469000	85,345521
71,679000	85,344269
71,890000	85,345364
72,098000	85,345364
72,321000	85,345364
72,533000	85,344895
72,741000	85,345364
72,953000	85,346616
73,165000	85,344895
73,372000	85,345051
73,583000	85,344738
73,819000	85,345521
74,044000	85,346303
74,297000	85,346459
74,506000	85,345521
74,794000	85,346146
75,021000	85,346459
75,234000	85,346616
75,451000	85,347554
75,658000	85,347554
75,868000	85,348493
76,075000	85,349275
76,286000	85,348962
76,498000	85,348337
76,705000	85,349588
76,917000	85,349745
77,124000	85,349119
77,331000	85,350058
77,538000	85,350996
77,752000	85,350058
77,959000	85,351153
78,172000	85,352091
78,379000	85,351309
78,591000	85,350996
78,799000	85,351778
79,005000	85,352091
79,213000	85,352248
79,420000	85,352873
79,627000	85,352717
79,839000	85,353343
80,046000	85,353812
80,258000	85,354594
80,465000	85,354125
80,672000	85,354594
80,880000	85,354438
81,087000	85,355377
81,294000	85,355064
81,501000	85,355846
81,707000	85,354751
81,915000	85,356159
82,122000	85,356159
82,334000	85,357254
82,541000	85,357410
82,748000	85,357254
82,955000	85,357567
83,163000	85,357723
83,375000	85,357097
83,582000	85,357567
83,789000	85,357723
84,013000	85,357723
84,220000	85,358818
84,433000	85,358662
84,641000	85,359601
84,848000	85,358818
85,055000	85,359757
85,262000	85,360539
85,470000	85,359913
85,677000	85,360852
85,884000	85,360852
86,099000	85,360070
86,306000	85,361321
86,512000	85,361478
86,720000	85,362416
86,926000	85,361009
87,133000	85,361165
87,346000	85,361009
87,553000	85,361165
87,766000	85,362573
87,973000	85,361634
88,206000	85,361791
88,413000	85,361478
88,626000	85,362416
88,832000	85,362416
89,040000	85,363824
89,256000	85,363824
89,465000	85,363668
89,672000	85,363199
89,885000	85,363355
90,093000	85,362886
90,299000	85,363042
90,513000	85,363981
90,720000	85,364450
90,927000	85,364137
91,139000	85,363981
91,358000	85,363668
91,571000	85,362886
91,778000	85,363042
91,991000	85,363824
92,198000	85,364294
92,406000	85,363512
92,612000	85,364294
92,820000	85,364294
93,027000	85,363512
93,235000	85,361791
93,442000	85,362729
93,655000	85,362416
93,863000	85,361791
94,070000	85,361947
94,283000	85,362416
94,490000	85,361947
94,703000	85,362104
94,910000	85,361478
95,117000	85,361791
95,324000	85,361478
95,537000	85,361634
95,745000	85,360696
95,952000	85,360070
96,165000	85,360696
96,373000	85,360070
96,580000	85,359601
96,793000	85,360226
97,001000	85,359757
97,211000	85,359601
97,419000	85,359131
97,632000	85,359757
97,839000	85,359131
98,052000	85,358975
98,260000	85,358193
98,467000	85,358818
98,674000	85,359131
98,881000	85,358505
99,094000	85,359757
99,301000	85,358662
99,512000	85,359131
99,719000	85,358662
99,927000	85,359288
100,135000	85,358505
100,385000	85,356472
100,592000	85,358505
100,800000	85,358975
101,007000	85,357254
101,214000	85,357880
101,422000	85,357567
101,634000	85,358818
101,842000	85,357723
102,049000	85,357723
102,257000	85,357567
102,464000	85,357723
102,671000	85,357254
102,879000	85,358193
103,086000	85,357410
103,293000	85,358193
103,508000	85,357723
103,715000	85,356472
103,929000	85,357410
104,136000	85,358193
104,351000	85,356628
104,559000	85,356315
104,771000	85,357567
104,979000	85,357567
105,192000	85,356941
105,399000	85,357880
105,606000	85,356941
105,813000	85,357410
106,025000	85,358662
106,234000	85,357723
106,446000	85,357723
106,654000	85,358193
106,866000	85,357254
107,075000	85,358193
107,282000	85,357567
107,495000	85,356315
107,702000	85,358036
107,915000	85,356628
108,122000	85,358193
108,329000	85,357254
108,536000	85,356941
108,750000	85,357880
108,963000	85,358193
109,170000	85,357723
109,378000	85,358349
109,585000	85,358505
109,792000	85,358975
110,000000	85,358349
110,207000	85,358036
110,419000	85,357880
110,626000	85,358818
110,833000	85,358662
111,041000	85,359131
111,248000	85,358818
111,456000	85,359288
111,664000	85,359601
111,871000	85,359913
112,084000	85,360539
112,292000	85,361009
112,499000	85,361165
112,722000	85,360696
112,930000	85,360539
113,142000	85,361791
113,350000	85,361947
113,563000	85,362416
113,771000	85,363042
113,987000	85,361947
114,194000	85,363355
114,407000	85,363355
114,614000	85,362729
114,821000	85,363199
115,028000	85,365076
115,248000	85,364137
115,455000	85,364763
115,668000	85,363668
115,876000	85,364920
116,089000	85,365389
116,296000	85,365076
116,509000	85,365232
116,716000	85,366953
116,923000	85,365702
117,131000	85,364763
117,343000	85,366171
117,551000	85,366484
117,763000	85,366640
117,971000	85,367110
118,178000	85,367423
118,391000	85,367579
