LabVIEW Measurement	
Writer_Version	2
Reader_Version	2
Separator	Tab
Decimal_Separator	,
Multi_Headings	No
X_Columns	One
Time_Pref	Absolute
Operator	ruan.comelli
Date	2019/06/17
Time	14:14:48,789849750058179406
***End_of_Header***	
	
Channels	1	
Samples	1	
Date	2019/06/17	
Time	14:14:48,789849750058179406	
Y_Unit_Label	Deg C	
X_Dimension	Time	
X0	0,0000000000000000E+0	
Delta_X	0,000000	
***End_of_Header***		
X_Value	RTD Temperature	Comment
0,000000	19,589431
0,208979	19,591118
0,414959	19,590658
0,620938	19,590811
0,833917	19,589891
1,039896	19,590965
1,266873	19,592039
1,477852	19,591118
1,693831	19,590811
1,900810	19,592652
2,107789	19,592192
2,315768	19,593266
2,522748	19,592039
2,734727	19,592652
2,941706	19,592652
3,149685	19,592652
3,358664	19,593112
3,568643	19,592805
3,775622	19,593572
3,982602	19,592959
4,194580	19,593266
4,400560	19,594339
4,618538	19,592959
4,835516	19,594799
5,045495	19,594339
5,251475	19,594186
5,462454	19,594646
5,670433	19,593879
5,882412	19,595260
6,089391	19,594646
6,302370	19,593726
6,508349	19,593879
6,716328	19,594033
6,923308	19,593572
7,138286	19,594033
7,349265	19,594339
7,566243	19,594186
7,773223	19,595106
7,980202	19,594339
8,186181	19,594186
8,403160	19,593112
8,610139	19,594493
8,821118	19,595260
9,029097	19,593112
9,240076	19,593726
9,447055	19,594033
9,664034	19,594493
9,871013	19,593879
10,078992	19,593879
10,291971	19,594953
10,500950	19,595566
10,714928	19,596027
10,922908	19,594799
11,129887	19,595720
11,335866	19,596947
11,542846	19,596027
11,748825	19,595260
11,958804	19,594953
12,166783	19,596640
12,372763	19,596487
12,580742	19,595873
12,787721	19,596027
13,017698	19,596487
13,224677	19,596027
13,435656	19,596947
13,642636	19,596487
13,849615	19,595720
14,056594	19,596640
14,275572	19,595260
14,493551	19,596180
14,702530	19,595566
14,911509	19,595566
15,118488	19,596027
15,325467	19,596640
15,532447	19,596793
15,742426	19,595413
15,949405	19,596487
16,168383	19,596333
16,377362	19,598021
16,589341	19,597560
16,795320	19,597100
17,037296	19,597100
17,249275	19,596333
17,456254	19,595720
17,673233	19,597407
17,881212	19,596333
18,089191	19,597407
18,299170	19,597100
18,534146	19,598634
18,744125	19,597867
18,951105	19,596947
19,157084	19,598174
19,371063	19,596793
19,578042	19,597254
19,800020	19,598021
20,006999	19,597407
20,219978	19,597254
20,426957	19,598174
20,633936	19,598634
20,846915	19,598787
21,069893	19,598634
21,283871	19,598327
21,490851	19,598174
21,703829	19,597560
21,910809	19,599094
22,120788	19,598174
22,331767	19,598941
22,538746	19,599094
22,744725	19,599401
22,952705	19,599554
23,159684	19,599708
23,372663	19,597867
23,621638	19,599401
23,828617	19,598787
24,034596	19,598941
24,246575	19,599401
24,456554	19,598941
24,663533	19,598174
24,884511	19,598634
25,115488	19,598787
25,332467	19,597560
25,539446	19,598327
25,745425	19,597867
25,964403	19,598941
26,177382	19,597560
26,387361	19,596487
26,626337	19,597407
26,833316	19,596793
27,039296	19,596333
27,246275	19,596180
27,458254	19,597407
27,666233	19,595413
27,898210	19,596180
28,107189	19,596180
28,313168	19,595720
28,524147	19,596027
28,731127	19,594953
28,938106	19,594493
29,147085	19,595566
29,357064	19,594339
29,577042	19,593879
29,784021	19,595720
29,996000	19,593726
30,221978	19,593112
30,437956	19,593572
30,643935	19,593726
30,850915	19,593726
31,062893	19,593572
31,269873	19,592959
31,476852	19,592652
31,682831	19,593112
31,890811	19,592192
32,097790	19,593112
32,303769	19,592039
32,510749	19,592805
32,719728	19,593266
32,931707	19,593879
33,137686	19,592805
33,345665	19,592652
33,551645	19,592039
33,759624	19,592959
33,973602	19,591118
34,180582	19,592192
34,395560	19,592805
34,602539	19,590811
34,809519	19,592652
35,015498	19,592039
35,225477	19,591732
35,432456	19,592499
35,639436	19,591425
35,847415	19,591578
36,058394	19,589891
36,293370	19,590811
36,510349	19,590505
36,717328	19,589891
36,923307	19,589738
37,132286	19,590658
37,339266	19,590351
37,546245	19,590505
37,768223	19,589891
37,977202	19,589584
38,189181	19,590198
38,396160	19,589738
38,603139	19,589124
38,822117	19,589891
39,029097	19,590198
39,241076	19,589431
39,449055	19,589891
39,663033	19,588971
39,869013	19,589124
40,076992	19,588971
40,283971	19,589891
40,494950	19,590045
40,700930	19,590351
40,908909	19,588971
41,115888	19,590658
41,368863	19,589431
41,579842	19,589891
41,787821	19,590811
42,002799	19,589891
42,210779	19,590351
42,417758	19,590658
42,625737	19,591118
42,838716	19,590198
43,045695	19,589431
43,268673	19,590658
43,475652	19,589891
43,705629	19,590658
43,917608	19,589891
44,128587	19,589278
44,334566	19,589891
44,555544	19,589891
44,768523	19,589278
44,977502	19,589584
45,184481	19,589584
45,395460	19,589584
45,602439	19,590198
45,816418	19,590045
46,023397	19,589738
46,231376	19,588971
46,472352	19,588664
46,679332	19,589124
46,887311	19,588511
47,099290	19,589584
47,306269	19,587437
47,513248	19,588664
47,719228	19,589584
47,933206	19,588664
48,140185	19,588971
48,347165	19,588051
48,555144	19,588664
48,762123	19,589278
49,030096	19,587897
49,236076	19,588664
49,444055	19,588204
49,652034	19,589278
49,870013	19,588204
50,079991	19,588204
50,286971	19,588817
50,508949	19,587897
50,715928	19,587284
50,922907	19,589431
51,129886	19,587897
51,335866	19,587284
51,543845	19,587744
51,750824	19,588357
52,025797	19,587437
52,232776	19,588357
52,442755	19,587744
52,648735	19,588051
52,855714	19,587744
53,064693	19,588051
53,274672	19,588664
53,483651	19,587437
53,699630	19,587437
53,912608	19,588051
54,119587	19,588204
54,325567	19,587437
54,561543	19,586363
54,778522	19,587284
55,002499	19,587590
55,228477	19,587590
55,441455	19,588204
55,651434	19,586977
55,858414	19,586977
56,103389	19,587590
56,310368	19,587744
56,518348	19,586823
56,728327	19,587437
56,936306	19,586670
57,143285	19,586057
57,351264	19,587897
57,582241	19,587130
57,793220	19,587284
58,005199	19,587284
58,213178	19,587437
58,420157	19,586823
58,627137	19,587744
58,845115	19,587284
59,051094	19,586517
59,274072	19,586517
59,490050	19,587897
59,696030	19,586057
59,904009	19,586977
60,123987	19,586057
60,330966	19,586977
